time (s)	coil I (A)	last det (V)	int current (uC)
429584.814290	0.508533	541.503906	25.878906
429584.816292	0.553748	541.503906	25.878906
429584.818290	0.551888	6.070767	0.536097
429585.864335	0.553597	161.230469	45.605469
429585.866336	0.551481	6.066292	0.528659
429586.910876	0.445552	540.917969	24.316406
429586.914876	0.551687	540.917969	24.316406
429586.916880	0.550408	6.054487	0.537495
429587.961837	0.553279	153.222656	-0.683594
429587.963837	0.551359	6.064945	0.467226
429588.976328	0.541142	547.265625	21.191406
429588.978328	0.552488	547.265625	21.191406
429588.980329	0.550921	6.060133	0.697794
429590.026310	0.553449	160.449219	19.824219
429590.028310	0.551521	6.066726	0.517287
429591.072868	0.497817	539.843750	20.800781
429591.074867	0.552797	539.843750	20.800781
429591.078867	0.549813	6.047938	0.518920
429592.088877	0.515200	170.312500	41.015625
429592.090879	0.552094	170.312500	41.015625
429592.092880	0.550335	6.053689	0.582708
429593.169858	0.481813	525.878906	21.679687
429593.171858	0.553179	525.878906	21.679687
429593.175856	0.549980	6.049781	0.486981
429594.185925	0.507269	152.246094	-24.023437
429594.187926	0.553177	152.246094	-24.023437
429594.189927	0.551335	6.064688	0.555112
429595.236383	0.553346	545.703125	17.675781
429595.238388	0.551413	6.065538	0.546811
429596.248923	0.309250	162.207031	13.671875
429596.250923	0.545238	162.207031	13.671875
429596.252923	0.552992	162.207031	13.671875
429596.254924	0.551367	6.065042	0.607944
429597.330978	0.430318	527.539062	20.019531
429597.332980	0.554316	527.539062	20.019531
429597.334981	0.552232	6.074552	0.516931
429598.349001	0.553837	154.882812	-5.761719
429598.351000	0.551711	6.068817	0.554069
429599.397569	0.553334	546.679687	16.796875
429599.399572	0.551299	6.064289	0.574266
429600.411561	0.478403	155.761719	-1.367187
429600.413558	0.553388	155.761719	-1.367187
429600.415560	0.551326	6.064581	0.610882
429601.495642	0.551860	523.632812	21.093750
429601.497644	0.550302	523.632812	21.093750
429601.499643	0.549246	6.041708	0.621388
429602.507664	0.319509	154.882812	-3.125000
429602.509665	0.546443	154.882812	-3.125000
429602.511666	0.552132	154.882812	-3.125000
429602.513665	0.550584	6.056428	0.573604
429603.589635	0.423257	515.527344	22.265625
429603.591637	0.553699	515.527344	22.265625
429603.593640	0.551815	6.069970	0.508071
429604.576149	0.553071	160.253906	15.332031
429604.578153	0.551529	6.066815	0.856046
429605.654710	0.505059	525.000000	21.777344
429605.656711	0.552846	525.000000	21.777344
429605.658711	0.551031	6.061337	0.541386
429606.674774	0.552105	143.847656	-50.000000
429606.676776	0.550965	6.060620	0.586991
429607.751319	0.444815	518.554687	21.972656
429607.753320	0.553765	518.554687	21.972656
429607.755319	0.553731	6.091044	0.509666
429608.767342	0.472078	142.968750	-58.593750
429608.769343	0.553070	142.968750	-58.593750
429608.771345	0.551003	6.061028	0.527107
429609.815355	0.392545	530.957031	20.703125
429609.817354	0.553103	530.957031	20.703125
429609.819354	0.551814	6.069952	0.565006
429610.832276	0.522331	152.050781	-30.371094
429610.834277	0.552531	152.050781	-30.371094
429610.836279	0.550845	6.059299	0.588673
429611.912335	1.637740	501.953125	24.609375
429611.914337	0.551117	501.953125	24.609375
429611.916339	0.551468	6.066150	0.512844
429612.928785	0.460538	142.480469	-80.078125
429612.930785	0.553493	142.480469	-80.078125
429612.932784	0.551458	6.066035	0.567664
429613.979223	0.553413	527.246094	21.289062
429613.981225	0.551311	6.064422	0.585107
429614.995784	0.552889	160.644531	-22.558594
429614.997786	0.551129	6.062419	0.632062
429616.074326	0.436437	514.941406	23.730469
429616.076328	0.552998	514.941406	23.730469
429616.078327	0.550979	6.060771	0.510533
429617.092370	0.553913	148.144531	-75.390625
429617.094374	0.551838	6.070218	0.565427
429618.140405	0.552791	520.214844	23.828125
429618.142407	0.551683	6.068516	0.583546
429619.190434	0.552064	152.636719	-63.769531
429619.192438	0.550501	152.636719	-63.769531
429619.194436	0.549467	6.044136	0.543151
429620.236424	0.500756	506.933594	26.855469
429620.238426	0.552694	506.933594	26.855469
429620.240427	0.550810	6.058910	0.503573
429621.252463	0.519470	158.398437	-38.671875
429621.254465	0.552678	158.398437	-38.671875
429621.256465	0.550923	6.060150	0.606305
429622.300471	0.464659	515.625000	27.832031
429622.302473	0.552969	515.625000	27.832031
429622.304473	0.550949	6.060443	0.577433
429623.348989	0.457796	145.117187	-86.914062
429623.350992	0.554282	145.117187	-86.914062
429623.352992	0.552207	6.074277	0.527558
429624.398986	0.552559	494.824219	31.738281
429624.400989	0.552334	6.075677	0.534507
429625.413562	0.479436	158.398437	-29.492187
429625.415565	0.552771	158.398437	-29.492187
429625.417563	0.550854	6.059397	0.626521
429626.461576	0.405038	503.613281	31.445312
429626.463578	0.553610	503.613281	31.445312
429626.465578	0.552014	6.072150	0.628552
429627.511581	0.544760	147.558594	-64.843750
429627.513582	0.553081	147.558594	-64.843750
429627.515584	0.551480	6.066283	0.716104
429628.561612	0.553018	486.523437	34.472656
429628.563613	0.551230	6.063535	0.535240
429629.610222	0.553656	144.726562	-71.289062
429629.612225	0.551861	6.070475	0.477792
429630.622798	0.350370	497.753906	34.472656
429630.624800	0.550685	497.753906	34.472656
429630.626800	0.552139	6.073524	0.633474
429631.672806	0.528280	152.050781	-34.667969
429631.674808	0.531027	152.050781	-34.667969
429631.676808	0.550348	6.053823	0.566107
429632.723406	0.553096	485.937500	36.035156
429632.725406	0.551406	6.065468	0.583955
429633.771997	0.552006	142.675781	-76.171875
429633.773998	0.550384	6.054221	0.510117
429634.784567	0.391964	489.843750	36.718750
429634.786575	0.552605	489.843750	36.718750
429634.788578	0.551446	6.065911	0.642971
429635.832554	0.291092	151.367187	-35.058594
429635.834555	0.540403	151.367187	-35.058594
429635.836555	0.552246	151.367187	-35.058594
429635.838554	0.550624	6.056862	0.555915
429636.881084	0.281973	483.007812	37.402344
429636.883085	0.537868	483.007812	37.402344
429636.885084	0.552182	483.007812	37.402344
429636.887084	0.550562	6.056180	0.588507
429637.931104	1.467213	138.281250	-93.847656
429637.933106	0.552629	138.281250	-93.847656
429637.935106	0.550785	6.058635	0.493536
429638.981118	0.553738	466.601562	38.867187
429638.983120	0.551720	6.068924	0.512707
429639.997715	0.552952	147.460937	-55.371094
429639.999717	0.551148	6.062632	0.559061
429641.043746	0.464035	483.691406	37.695312
429641.045752	0.473210	483.691406	37.695312
429641.047754	0.550931	6.060239	0.606130
429642.094295	0.553141	145.019531	-70.507812
429642.096297	0.551063	6.061692	0.504815
429643.143268	0.553034	453.125000	39.648437
429643.145274	0.551119	6.062313	0.526957
429644.157233	0.514535	148.242187	-61.523437
429644.159234	0.552441	148.242187	-61.523437
429644.161233	0.550715	6.057864	0.582625
429645.205245	0.458325	485.937500	37.109375
429645.207246	0.553126	485.937500	37.109375
429645.209247	0.551031	6.061337	0.609462
429646.256178	0.552821	138.867187	-111.718750
429646.258182	0.550916	6.060080	0.517980
429647.299737	2.185343	466.992187	38.964844
429647.307098	0.551120	466.992187	38.964844
429647.309099	0.550070	6.050765	0.523636
429648.317652	0.374565	150.195312	-72.851562
429648.319653	0.552270	150.195312	-72.851562
429648.321652	0.551886	6.070749	0.614895
429649.369709	0.551676	485.742187	36.523437
429649.371707	0.550128	485.742187	36.523437
429649.375708	0.548188	6.030072	0.621274
429650.416243	0.536954	147.656250	-93.164062
429650.420242	0.550987	147.656250	-93.164062
429650.422243	0.549891	6.048798	0.553215
429651.464764	0.533386	468.945312	37.109375
429651.466765	0.551905	468.945312	37.109375
429651.468765	0.550292	6.053211	0.532196
429652.481272	0.552687	157.617187	-66.699219
429652.483275	0.551545	6.066992	0.641277
429653.531304	0.553328	483.691406	34.082031
429653.533305	0.551732	6.069057	0.735233
429654.577870	0.540315	150.976562	-101.074219
429654.579871	0.551784	150.976562	-101.074219
429654.581871	0.550223	6.052457	0.665172
429655.625861	0.501954	460.839844	34.863281
429655.627862	0.505469	460.839844	34.863281
429655.629860	0.551178	6.062960	0.527639
429656.675897	0.553754	130.371094	-197.558594
429656.677899	0.551658	6.068242	0.483079
429657.689872	0.461301	493.652344	31.640625
429657.691878	0.552980	493.652344	31.640625
429657.693883	0.550926	6.060185	0.651969
429658.739880	0.552043	139.257812	-164.257812
429658.741883	0.551521	6.066726	0.579135
429659.787879	0.536064	475.488281	31.054687
429659.789882	0.552035	475.488281	31.054687
429659.791882	0.550430	6.054735	0.551261
429660.836431	0.534105	130.371094	-204.785156
429660.838434	0.551961	130.371094	-204.785156
429660.840433	0.550375	6.054124	0.485228
429661.886475	0.553284	462.207031	31.445312
429661.888476	0.551351	6.064856	0.480834
429662.901022	0.544026	143.847656	-151.757812
429662.903024	0.551801	143.847656	-151.757812
429662.905023	0.550239	6.052626	0.574079
429663.949516	0.540741	480.371094	29.589844
429663.951518	0.552079	480.371094	29.589844
429663.953518	0.550508	6.055586	0.700389
429664.998467	0.550906	133.007812	-190.039062
429665.000468	0.551439	6.065831	0.478357
429666.047008	0.550510	469.433594	29.394531
429666.049011	0.550949	6.060434	0.503790
429667.061017	0.388181	137.109375	-171.582031
429667.063017	0.551990	137.109375	-171.582031
429667.065017	0.550989	6.060877	0.561663
429668.113045	0.551885	480.078125	29.199219
429668.115046	0.550382	6.054204	0.604482
429669.159536	0.537201	130.371094	-198.535156
429669.161540	0.552566	130.371094	-198.535156
429669.163539	0.550947	6.060416	0.474504
429670.210038	0.552066	452.832031	31.152344
429670.212040	0.550475	452.832031	31.152344
429670.214040	0.549421	6.043631	0.538261
429671.226030	0.551716	140.332031	-156.054687
429671.230029	0.549170	140.332031	-156.054687
429671.232031	0.548262	6.030887	0.570898
429672.272548	0.539632	481.738281	29.492187
429672.274550	0.552578	481.738281	29.492187
429672.276549	0.550924	6.060160	0.728269
429673.319493	0.352244	131.542969	-193.945312
429673.321494	0.550043	131.542969	-193.945312
429673.323495	0.551320	6.064519	0.501033
429674.371510	0.554263	463.867187	31.347656
429674.373511	0.552563	6.078194	0.544801
429675.384102	1.522366	133.398437	-189.160156
429675.386104	0.553339	133.398437	-189.160156
429675.388103	0.552187	6.074055	0.576428
429676.466127	0.483379	437.500000	32.324219
429676.468129	0.552694	437.500000	32.324219
429676.470127	0.550723	6.057952	0.446486
429677.486183	0.550923	120.214844	-248.242187
429677.488186	0.549833	6.048160	0.480155
429678.532694	0.552754	455.761719	31.640625
429678.534695	0.550907	6.059973	0.537707
429679.546710	0.518127	146.191406	-151.757812
429679.548712	0.552279	146.191406	-151.757812
429679.550714	0.550548	6.056029	0.607369
429680.626713	0.344672	442.480469	32.324219
429680.628715	0.549393	442.480469	32.324219
429680.630713	0.551435	6.065787	0.453241
429681.643248	0.458495	129.199219	-226.757812
429681.647253	0.551208	129.199219	-226.757812
429681.651252	0.549091	6.040006	0.516392
429682.693318	0.552014	459.863281	32.031250
429682.695320	0.551206	6.063270	0.542781
429683.707861	0.484959	143.164062	-179.199219
429683.709863	0.552939	143.164062	-179.199219
429683.713862	0.549752	6.047273	0.631528
429684.791922	0.552425	432.031250	33.984375
429684.793925	0.550776	6.058537	0.526230
429685.805978	0.547433	131.933594	-225.585937
429685.807978	0.551880	131.933594	-225.585937
429685.809979	0.550449	6.054939	0.758118
429686.855987	0.553130	439.550781	34.765625
429686.857990	0.551374	6.065113	0.531377
429687.902001	0.464701	129.296875	-240.625000
429687.904005	0.553084	129.296875	-240.625000
429687.906003	0.551008	6.061090	0.466455
429688.952033	0.552667	437.304687	36.328125
429688.954036	0.551770	6.069474	0.439088
429689.966078	0.423077	140.820312	-196.191406
429689.968079	0.553460	140.820312	-196.191406
429689.970079	0.551562	6.067178	0.572192
429691.016099	0.549640	447.558594	37.304687
429691.018101	0.553755	447.558594	37.304687
429691.020101	0.552168	6.073852	0.534486
429692.064724	0.548914	135.839844	-215.332031
429692.066726	0.551628	135.839844	-215.332031
429692.068726	0.550243	6.052670	0.466782
429693.111290	0.336851	426.367187	39.746094
429693.113292	0.548928	426.367187	39.746094
429693.115292	0.551699	426.367187	39.746094
429693.117293	0.550269	6.052954	0.444543
429694.129334	0.552162	150.195312	-152.929687
429694.131335	0.551527	6.066797	0.587167
429695.179360	0.553106	427.636719	40.820312
429695.181362	0.551531	6.066841	0.640516
429696.227339	0.553022	126.757812	-246.093750
429696.229342	0.551123	6.062348	0.472848
429697.273293	0.415675	413.085937	42.578125
429697.275297	0.553599	413.085937	42.578125
429697.279294	0.550505	6.055559	0.454838
429698.289335	0.449046	150.488281	-146.484375
429698.291338	0.553615	150.488281	-146.484375
429698.293338	0.551463	6.066088	0.589963
429699.339872	0.553615	423.437500	43.066406
429699.343873	0.550240	6.052635	0.555153
429700.390340	0.551162	136.523437	-198.828125
429700.392342	0.549847	6.048319	0.481949
429701.436895	0.553570	405.664062	44.238281
429701.438896	0.551649	6.068144	0.456901
429702.450907	0.454257	150.390625	-141.992187
429702.452910	0.553616	150.390625	-141.992187
429702.454911	0.551468	6.066150	0.598147
429703.499839	0.494702	428.125000	44.238281
429703.501840	0.552454	428.125000	44.238281
429703.503842	0.550600	6.056597	0.578881
429704.549840	0.553308	136.425781	-200.292969
429704.551843	0.551352	6.064874	0.495521
429705.598386	0.553005	422.070312	44.726562
429705.600388	0.551154	6.062694	0.475856
429706.613360	0.536151	145.800781	-162.109375
429706.615362	0.552283	145.800781	-162.109375
429706.617361	0.550687	6.057562	0.661373
429707.663403	0.552667	437.402344	43.750000
429707.665403	0.550754	6.058289	0.586326
429708.711989	0.553187	127.636719	-239.941406
429708.713989	0.551273	6.064005	0.501468
429709.757981	0.429225	411.035156	44.921875
429709.759982	0.553950	411.035156	44.921875
429709.761980	0.551975	6.071724	0.476722
429710.807982	0.550020	129.589844	-237.402344
429710.809983	0.553814	129.589844	-237.402344
429710.811983	0.552214	6.074356	0.679692
429711.821970	0.365081	430.468750	44.140625
429711.823972	0.552437	430.468750	44.140625
429711.825972	0.552650	6.079151	0.597506
429712.871967	0.531700	142.089844	-189.843750
429712.873970	0.551476	142.089844	-189.843750
429712.875968	0.549813	6.047946	0.531342
429713.921969	0.553376	405.566406	44.335937
429713.923971	0.551424	405.566406	44.335937
429713.925972	0.550236	6.052600	0.489777
429714.967968	0.410690	130.273437	-245.019531
429714.969971	0.553536	130.273437	-245.019531
429714.971969	0.551836	6.070191	0.413781
429715.984961	0.533835	427.832031	43.554687
429715.988963	0.550689	427.832031	43.554687
429715.990964	0.549635	6.045988	0.652140
429717.032960	0.488549	142.968750	-199.121094
429717.034962	0.553259	142.968750	-199.121094
429717.036962	0.551264	6.063899	0.540413
429718.081843	0.516173	422.558594	42.675781
429718.083846	0.552416	422.558594	42.675781
429718.085845	0.550656	6.057217	0.486776
429719.130822	0.540364	131.542969	-253.320312
429719.132824	0.552114	131.542969	-253.320312
429719.134825	0.550573	6.056304	0.567267
429720.144829	0.325972	435.449219	41.210937
429720.146831	0.547240	435.449219	41.210937
429720.148831	0.551800	435.449219	41.210937
429720.150829	0.550353	6.053885	0.629582
429721.194903	0.522871	140.332031	-224.218750
429721.196905	0.552628	140.332031	-224.218750
429721.198905	0.550933	6.060266	0.539472
429722.245464	0.552589	408.398437	39.843750
429722.247466	0.550896	408.398437	39.843750
429722.249466	0.549876	6.048638	0.492358
429723.291512	0.474513	126.660156	-284.960937
429723.293514	0.552777	126.660156	-284.960937
429723.295514	0.550769	6.058457	0.433913
429724.341555	0.552968	411.621094	39.746094
429724.345556	0.550117	6.051288	0.407174
429725.356553	0.530965	135.742187	-253.320312
429725.358551	0.552306	135.742187	-253.320312
429725.360551	0.550643	6.057076	0.563498
429726.404610	0.489003	424.511719	38.671875
429726.406612	0.552684	424.511719	38.671875
429726.408610	0.550723	6.057952	0.528224
429727.454652	0.552873	123.925781	-299.121094
429727.456655	0.550999	6.060984	0.435184
429728.501216	0.420847	396.093750	37.695312
429728.503218	0.553229	396.093750	37.695312
429728.505218	0.551334	6.064679	0.435202
429729.517252	0.452086	140.039062	-235.839844
429729.519254	0.553726	140.039062	-235.839844
429729.521256	0.551604	6.067647	0.530057
429730.565269	0.366066	419.335937	37.207031
429730.567268	0.551272	419.335937	37.207031
429730.569271	0.551485	6.066336	0.564341
429731.615772	0.550181	121.679687	-306.445312
429731.617773	0.551099	6.062091	0.433486
429732.664343	0.550082	399.414062	36.718750
429732.666341	0.551295	6.064245	0.453905
429733.680319	0.552596	134.375000	-254.687500
429733.682323	0.551775	6.069527	0.538646
429734.726844	1.832460	423.925781	37.304687
429734.728847	0.551177	423.925781	37.304687
429734.732845	0.549494	6.044437	0.577791
429735.778859	0.552582	117.382812	-319.531250
429735.780860	0.550932	6.060256	0.505594
429736.825388	0.947976	401.562500	37.890625
429736.827389	0.552124	401.562500	37.890625
429736.829389	0.550507	6.055577	0.481743
429737.841819	0.552014	120.507812	-305.468750
429737.843823	0.551699	6.068693	0.537643
429738.921814	0.470733	389.550781	38.085937
429738.923814	0.553155	389.550781	38.085937
429738.925815	0.551024	6.061267	0.378106
429739.937819	0.491684	118.164062	-315.917969
429739.939820	0.552607	118.164062	-315.917969
429739.941820	0.550629	6.056915	0.421136
429740.986422	0.494670	404.394531	37.792969
429740.988423	0.552966	404.394531	37.792969
429740.990426	0.551032	6.061356	0.476204
429742.002428	0.512058	125.097656	-290.136719
429742.004428	0.552664	125.097656	-290.136719
429742.006428	0.550865	6.059512	0.548361
429743.050426	0.447637	433.691406	36.914062
429743.052428	0.553400	433.691406	36.914062
429743.054427	0.551271	6.063979	0.622068
429744.098958	0.443562	114.843750	-337.304687
429744.100958	0.553903	114.843750	-337.304687
429744.102960	0.551867	6.070537	0.447171
429745.146989	0.358040	411.718750	38.183594
429745.148989	0.550512	411.718750	38.183594
429745.150989	0.551240	6.063643	0.487232
429746.163005	0.393779	127.343750	-290.625000
429746.165006	0.553011	127.343750	-290.625000
429746.167006	0.551811	6.069917	0.559374
429747.245019	0.484418	391.308594	38.281250
429747.247021	0.552728	391.308594	38.281250
429747.249022	0.550692	6.057607	0.376764
429748.261061	0.507063	113.671875	-350.488281
429748.263063	0.552896	113.671875	-350.488281
429748.265063	0.551070	6.061772	0.454012
429749.309160	0.455629	410.253906	38.574219
429749.311161	0.553871	410.253906	38.574219
429749.313160	0.551699	6.068693	0.483030
429750.327220	0.553202	129.199219	-294.628906
429750.331220	0.550038	6.050420	0.599128
429751.405186	0.271140	382.910156	39.453125
429751.407189	0.534848	382.910156	39.453125
429751.409188	0.552305	382.910156	39.453125
429751.411188	0.550629	6.056924	0.385906
429752.423233	0.544944	119.628906	-335.644531
429752.425235	0.551819	119.628906	-335.644531
429752.427236	0.550290	6.053185	0.491813
429753.473691	0.557156	405.175781	40.527344
429753.477690	0.554518	6.099694	0.598635
429754.520261	0.540117	121.386719	-330.859375
429754.522264	0.542174	121.386719	-330.859375
429754.524263	0.550348	6.053832	0.527926
429755.568300	0.504318	384.667969	41.406250
429755.570299	0.552091	384.667969	41.406250
429755.572299	0.550279	6.053069	0.377067
429756.582908	0.332784	128.710937	-304.492187
429756.584910	0.549001	128.710937	-304.492187
429756.586911	0.551684	128.710937	-304.492187
429756.588910	0.550267	6.052936	0.520094
429757.632900	0.521241	405.468750	42.675781
429757.634902	0.552457	405.468750	42.675781
429757.636904	0.550754	6.058298	0.481138
429758.681878	0.543789	113.671875	-362.597656
429758.683878	0.551977	113.671875	-362.597656
429758.685880	0.550479	6.055267	0.406137
429759.729869	0.507523	381.054687	43.847656
429759.731871	0.552541	381.054687	43.847656
429759.733870	0.550786	6.058643	0.372913
